#FIG 3.2
Landscape
Center
Inches
Letter  
100.00
Single
-2
1200 2
2 1 0 3 0 7 50 -1 -1 0.000 0 0 -1 0 1 2
	1 1 2.00 60.00 120.00
	 1200 1200 1200 6000
2 1 0 3 0 7 50 -1 -1 0.000 0 0 -1 1 0 2
	1 1 2.00 60.00 120.00
	 1200 6000 10800 6000
3 2 0 5 1 7 50 -1 -1 0.000 0 0 0 5
	 1200 2025 3150 2850 5400 5700 8550 4200 10725 5400
	 0.000 -1.000 -1.000 -1.000 0.000
4 0 0 50 -1 18 18 0.0000 4 210 2205 1350 1500 information from\001
4 0 0 50 -1 18 18 0.0000 4 210 2055 1350 1800 surface seismic\001
4 0 0 50 -1 18 24 0.0000 4 285 1395 5100 3600 medium\001
4 0 0 50 -1 18 24 0.0000 4 360 780 8400 3600 high\001
4 0 0 50 -1 18 24 0.0000 4 285 600 2100 3600 low\001
4 0 0 50 -1 18 18 0.0000 4 270 2595 8025 6300 spatial wavenumber\001
